u:\PHYS 402\Lab 1 (D7)\day2data3(notgood).txt

DAQ PROGRAM: DGMC2.prj 


Date: 
09-08-2020
Time: 
10:45:57
Total Number of Data Points:     
350
Stepper Motor Step Size (Cycles):
1
Stepper Motor Step Size (Steps): 
40
Stepper Motor Step Size (cm):    
2.0

W(A) 	Robs 	WNum 
        4651.65	      12.971698	    1172.848126
        4653.15	      10.023585	    1179.778189
        4655.15	       11.20283	    1189.011325
        4657.15	      10.613208	    1198.236532
        4659.15	       5.306604	    1207.453818
         4661.2	       7.665094	    1216.893328
        4663.15	       2.948113	    1225.864671
        4665.15	       9.433962	    1235.058258
        4667.15	       4.716981	    1244.243966
        4669.15	       8.254717	    1253.421805
         4671.2	        8.84434	    1262.820933
        4673.15	      10.023585	    1271.753914
        4675.15	       8.254717	    1280.908205
        4677.15	       5.306604	    1290.054668
        4679.15	       4.716981	    1299.193311
         4681.2	       7.665094	    1308.552316
        4683.15	       6.485849	    1317.447181
        4685.15	       6.485849	    1326.562428
        4687.15	      12.382075	    1335.669896
        4689.15	       4.716981	    1344.769594
         4691.2	      10.613208	    1354.088733
        4693.15	        8.84434	    1362.945725
        4695.15	      11.792453	    1372.022176
        4697.15	      10.023585	    1381.090898
        4699.15	      12.971698	    1390.151901
         4701.2	       4.716981	    1399.431428
        4703.15	       7.075472	    1408.250787
        4705.15	      11.792453	    1417.288691
        4707.15	       11.20283	    1426.318914
        4709.15	       4.127358	    1435.341467
        4711.15	       7.665094	    1444.356359
        4713.15	      10.023585	      1453.3636
        4715.15	       5.896226	    1462.363201
        4717.15	      12.382075	     1471.35517
         4719.1	       6.485849	    1480.115001
        4721.15	       2.358491	    1489.316252
         4723.1	      11.792453	    1498.061249
         4725.1	       8.254717	    1507.022979
         4727.1	      10.023585	    1515.977126
         4729.1	       11.20283	    1524.923699
        4731.15	       11.20283	    1534.086086
         4733.1	       8.254717	    1542.794162
         4735.1	      11.792453	    1551.718071
        4737.15	      10.023585	    1560.857259
        4739.15	       6.485849	    1569.765919
        4741.15	       5.306604	    1578.667063
        4743.15	       5.306604	    1587.560701
        4745.15	      13.561321	    1596.446842
        4747.15	      14.150943	    1605.325495
        4749.15	       6.485849	     1614.19667
        4751.15	       4.716981	    1623.060377
        4753.15	       7.665094	    1631.916624
        4755.15	      10.023585	    1640.765422
        4757.15	      12.971698	    1649.606779
        4759.15	      12.971698	    1658.440705
         4761.2	        8.84434	    1667.487777
        4763.15	      10.023585	    1676.086301
        4765.15	       6.485849	     1684.89799
         4767.2	      15.330189	    1693.922298
        4769.15	        8.84434	    1702.499196
         4771.2	      15.330189	    1711.508376
        4773.15	      10.613208	    1720.070902
        4775.15	       6.485849	    1728.845716
        4777.15	       11.20283	    1737.613182
        4779.15	       6.485849	     1746.37331
         4781.2	       5.896226	    1755.344835
        4783.15	        8.84434	    1763.871589
        4785.15	       8.254717	    1772.609758
        4787.15	       9.433962	    1781.340625
        4789.15	       5.896226	    1790.064201
         4791.2	       8.254717	    1798.998307
        4793.15	       2.358491	    1807.489511
        4795.15	       7.075472	    1816.191265
        4797.15	       7.075472	    1824.885763
        4799.15	       2.948113	    1833.573014
         4801.2	      14.150943	    1842.469935
        4803.15	        8.84434	    1850.925812
        4805.15	        8.84434	    1859.591377
        4807.15	      13.561321	    1868.249732
        4809.15	       7.665094	    1876.900885
        4811.15	       7.665094	    1885.544846
        4813.15	       4.716981	    1894.181623
        4815.15	        8.84434	    1902.811225
        4817.15	      12.971698	    1911.433661
         4819.1	      10.613208	    1919.833646
        4821.15	      14.150943	    1928.657073
         4823.1	        8.84434	    1937.043128
         4825.1	        8.84434	    1945.637168
         4827.1	      10.613208	    1954.224088
         4829.1	       8.254717	    1962.803894
        4831.15	      12.971698	    1971.590824
         4833.1	      12.971698	    1979.942205
         4835.1	       4.716981	    1988.500727
        4837.15	       8.254717	    1997.265867
        4839.15	       6.485849	    2005.810066
        4841.15	      10.023585	    2014.347205
        4843.15	       8.254717	    2022.877293
        4845.15	       8.254717	     2031.40034
        4847.15	       7.075472	    2039.916353
        4849.15	      10.613208	    2048.425341
         4851.2	        8.84434	    2057.139772
        4853.15	       8.254717	    2065.422277
        4855.15	       5.306604	    2073.910243
        4857.15	       4.716981	    2082.391219
        4859.15	       5.306604	    2090.865214
         4861.2	      14.150943	    2099.543822
        4863.15	       5.896226	    2107.792293
        4865.15	      10.023585	    2116.245394
         4867.2	       6.485849	    2124.902614
        4869.15	       9.433962	    2133.130765
         4871.2	       5.896226	     2141.77377
         4873.2	       9.433962	    2150.198962
        4875.15	       9.433962	    2158.406868
         4877.2	       6.485849	    2167.028616
        4879.15	      12.382075	    2175.223067
         4881.2	      10.023585	    2183.830687
        4883.15	       7.665094	    2192.011716
        4885.15	       5.896226	    2200.395731
         4887.2	      10.613208	    2208.982225
        4889.15	       6.485849	    2217.143182
         4891.2	       5.896226	    2225.715635
        4893.15	       5.896226	    2233.863253
        4895.15	       9.433962	    2242.213041
        4897.15	       9.433962	    2250.556009
        4899.15	       7.075472	    2258.892166
         4901.2	       6.485849	    2267.429665
        4903.15	       3.537736	    2275.544076
        4905.15	       2.358491	    2283.859847
        4907.15	       11.20283	     2292.16884
        4909.15	       6.485849	    2300.471062
        4911.15	      10.023585	    2308.766523
        4913.15	       7.075472	    2317.055229
         4915.1	       5.306604	    2325.130224
        4917.15	      11.792453	    2333.612415
         4919.1	       6.485849	    2341.674279
        4921.15	      16.509434	    2350.142684
        4923.15	      13.561321	    2358.397746
         4925.1	       9.433962	    2366.439976
         4927.1	       5.306604	    2374.681804
         4929.1	       3.537736	    2382.916944
        4931.15	       7.075472	     2391.35103
         4933.1	       8.254717	    2399.367192
         4935.1	       4.716981	    2407.582316
        4937.15	       9.433962	    2415.995911
        4939.15	       3.537736	    2424.197565
        4941.15	        8.84434	     2432.39258
        4943.15	       0.589623	    2440.580963
        4945.15	       5.896226	    2448.762723
        4947.15	       8.254717	    2456.937868
        4949.15	       9.433962	    2465.106405
         4951.2	       5.896226	    2473.472307
        4953.15	       7.075472	     2481.42369
        4955.15	       2.948113	    2489.572453
        4957.15	      10.613208	    2497.714641
        4959.15	      10.023585	    2505.850262
         4961.2	       6.485849	    2514.182466
        4963.15	       6.485849	    2522.101833
        4965.15	       7.075472	    2530.217799
        4967.15	        8.84434	    2538.327229
        4969.15	       8.254717	    2546.430132
         4971.2	       7.075472	     2554.72884
         4973.2	       4.716981	    2562.818548
        4975.15	       5.306604	    2570.699751
        4977.15	       8.254717	    2578.776621
        4979.15	      10.023585	    2586.847002
         4981.2	       4.716981	    2595.112418
        4983.15	       5.306604	    2602.968331
        4985.15	      11.792453	    2611.019293
         4987.2	       6.485849	    2619.264828
         4989.2	       6.485849	    2627.302723
         4991.2	      10.613208	    2635.334175
        4993.15	       2.358491	    2643.158647
        4995.15	      10.023585	      2651.1774
        4997.15	      12.382075	    2659.189735
        4999.15	       8.254717	    2667.195659
         5001.2	        8.84434	    2675.395085
        5003.15	       9.433962	    2683.188304
        5005.15	       5.306604	    2691.175041
        5007.15	       4.716981	    2699.155397
        5009.15	       4.716981	    2707.129381
        5011.15	       8.254717	       2715.097
        5013.15	       5.896226	    2723.058262
        5015.15	       2.948113	    2731.013173
        5017.15	       6.485849	    2738.961743
         5019.1	       8.254717	    2746.705499
        5021.15	       5.896226	    2754.839886
        5023.15	        8.84434	    2762.769475
         5025.1	       7.665094	    2770.494746
         5027.1	       7.075472	    2778.411876
         5029.1	       6.485849	    2786.322709
        5031.15	       4.716981	    2794.424785
         5033.1	       7.075472	    2802.125513
         5035.1	        8.84434	    2810.017499
        5037.15	       5.306604	    2818.100282
        5039.15	       5.306604	    2825.979585
        5041.15	       7.075472	    2833.852637
        5043.15	       2.358491	    2841.719443
        5045.15	       7.665094	    2849.580013
        5047.15	       4.716981	    2857.434353
        5049.15	       4.127358	    2865.282471
        5051.15	       4.127358	    2873.124374
        5053.15	       9.433962	    2880.960069
        5055.15	       5.896226	    2888.789564
        5057.15	        8.84434	    2896.612867
        5059.15	       9.433962	    2904.429983
         5061.2	        8.84434	    2912.436117
        5063.15	       4.127358	     2920.04569
        5065.15	       5.896226	    2927.844294
        5067.15	       4.716981	    2935.636743
         5069.2	       9.433962	    2943.617621
         5071.2	       7.665094	    2951.397625
        5073.15	       5.306604	    2958.977223
        5075.15	       8.254717	    2966.745119
         5077.2	       5.896226	    2974.700861
        5079.15	       3.537736	    2982.262559
         5081.2	       6.485849	    2990.205778
        5083.15	       4.716981	    2997.755577
        5085.15	       4.127358	    3005.492946
         5087.2	       8.254717	    3013.417435
        5089.15	       4.716981	    3020.949439
         5091.2	       5.896226	    3028.861479
        5093.15	       7.665094	    3036.381654
        5095.15	       7.075472	    3044.088676
        5097.15	       5.306604	    3051.789649
        5099.15	       2.948113	    3059.484581
         5101.2	       5.306604	    3067.365624
        5103.15	       6.485849	    3074.856351
        5105.15	       5.306604	    3082.533202
        5107.15	       7.075472	    3090.204041
        5109.15	       5.896226	    3097.868875
        5111.15	       8.254717	     3105.52771
        5113.15	       3.537736	    3113.180554
         5115.1	      10.613208	    3120.636314
        5117.15	       9.433962	    3128.468294
        5119.15	       4.127358	    3136.103206
        5121.15	       4.127358	    3143.732153
        5123.15	       4.127358	    3151.355145
         5125.1	       5.896226	    3158.781833
         5127.1	      10.023585	    3166.393081
         5129.1	       8.254717	    3173.998393
        5131.15	       4.716981	    3181.787685
         5133.1	       7.075472	    3189.191238
         5135.1	      10.023585	    3196.778784
        5137.15	       6.485849	    3204.549888
        5139.15	        8.84434	    3212.125478
        5141.15	       8.254717	    3219.695174
        5143.15	       4.716981	    3227.258982
        5145.15	       5.306604	    3234.816911
        5147.15	       5.896226	    3242.368965
        5149.15	       7.665094	    3249.915153
        5151.15	       4.127358	    3257.455482
        5153.15	       6.485849	    3264.989957
        5155.15	        8.84434	    3272.518586
        5157.15	      15.330189	    3280.041376
        5159.15	       5.896226	    3287.558333
         5161.2	       5.306604	    3295.257168
        5163.15	       3.537736	    3302.574777
        5165.15	       5.896226	    3310.074277
        5167.15	       4.716981	    3317.567972
        5169.15	       7.075472	    3325.055867
         5171.2	       2.358491	     3332.72495
        5173.15	      10.023585	     3340.01429
        5175.15	       2.948113	    3347.484829
        5177.15	       8.254717	    3354.949597
        5179.15	       4.716981	      3362.4086
         5181.2	       3.537736	    3370.048101
        5183.15	       5.896226	    3377.309336
        5185.15	       2.358491	    3384.751083
         5187.2	       3.537736	    3392.372918
        5189.15	       6.485849	    3399.617367
         5191.2	       4.716981	    3407.227459
        5193.15	       4.716981	    3414.460751
        5195.15	       7.075472	    3421.873871
        5197.15	       6.485849	    3429.281285
        5199.15	       3.537736	    3436.683001
         5201.2	       11.20283	    3444.263852
        5203.15	       4.127358	    3451.469362
        5205.15	       1.179245	     3458.85402
        5207.15	       4.716981	    3466.233005
        5209.15	       5.896226	    3473.606325
        5211.15	       4.716981	    3480.973984
        5213.15	       6.485849	    3488.335991
        5215.15	       3.537736	    3495.692351
        5217.15	       7.075472	    3503.043071
        5219.15	       2.358491	    3510.388157
        5221.15	       5.306604	    3517.727616
        5223.15	       4.127358	    3525.061454
         5225.1	       11.20283	    3532.206541
         5227.1	       5.306604	    3539.529297
        5229.15	       7.075472	    3547.029309
        5231.15	       2.948113	    3554.340729
         5233.1	       2.948113	    3561.463982
         5235.1	       5.306604	    3568.764371
        5237.15	      12.971698	    3576.241483
        5239.15	       2.358491	    3583.530587
        5241.15	       3.537736	    3590.814128
        5243.15	       8.254717	    3598.092112
        5245.15	       7.665094	    3605.364546
        5247.15	       7.665094	    3612.631437
        5249.15	       4.127358	    3619.892789
        5251.15	       2.948113	    3627.148611
        5253.15	       4.716981	    3634.398907
        5255.15	       1.768868	    3641.643685
        5257.15	       4.716981	    3648.882951
        5259.15	       5.306604	    3656.116711
         5261.2	       3.537736	    3663.525606
        5263.15	       4.716981	    3670.567737
        5265.15	       8.254717	    3677.785016
         5267.2	       2.358491	    3685.177039
         5269.2	       5.896226	    3692.383225
         5271.2	       5.306604	    3699.583943
        5273.15	       5.896226	    3706.599385
        5275.15	      10.613208	    3713.789321
        5277.15	       5.896226	    3720.973808
        5279.15	       9.433962	    3728.152851
         5281.2	       4.716981	    3735.505727
        5283.15	      12.382075	    3742.494631
        5285.15	       8.254717	     3749.65738
        5287.15	        8.84434	     3756.81471
        5289.15	       11.20283	    3763.966627
         5291.2	       4.716981	    3771.291731
        5293.15	       5.896226	    3778.254248
        5295.15	       9.433962	    3785.389963
        5297.15	       8.254717	     3792.52029
        5299.15	       7.075472	    3799.645235
         5301.2	      11.792453	    3806.942724
        5303.15	      10.023585	    3813.879003
        5305.15	       8.254717	    3820.987837
        5307.15	       4.127358	    3828.091314
        5309.15	      14.740566	    3835.189439
        5311.15	       6.485849	    3842.282218
        5313.15	       4.127358	    3849.369657
         5315.1	       4.127358	    3856.274775
        5317.15	       8.254717	    3863.528541
        5319.15	       6.485849	    3870.599997
        5321.15	       5.306604	    3877.666137
         5323.1	       7.665094	    3884.550511
         5325.1	       4.127358	    3891.606171
        5327.15	       6.485849	    3898.832723
        5329.15	       4.127358	    3905.877661
        5331.15	       2.948113	    3912.917312
        5333.15	       6.485849	    3919.951683
         5335.1	        8.84434	    3926.805117
        5337.15	       8.254717	     3934.00461
        5339.15	       7.665094	    3941.023177
        5341.15	       4.127358	    3948.036488
        5343.15	       5.896226	    3955.044549
        5345.15	       2.948113	    3962.047365
        5347.15	       6.485849	    3969.044943
        5349.15	       4.716981	    3976.037288
